# 18.11.2020
# 
# unfiltered x-ray spectrum
# measured at: PTB, Braunschweig
# anode: tungsten
# tube voltage: 13 kV
# anode angle: 30°
# inherent filtration: 4 mm Be
# measured in air at 100 cm distance from the focus
# bin width: 0.25 keV
# 
# energy 	 fluence
# (top of bin) 	 (normalised to total fluence and bin width)
# [keV] 	 [photons keV^-1 cm^-2]
2.500e-01 	 0.00000e+00
5.000e-01 	 0.00000e+00
7.500e-01 	 0.00000e+00
1.000e+00 	 0.00000e+00
1.250e+00 	 0.00000e+00
1.500e+00 	 0.00000e+00
1.750e+00 	 0.00000e+00
2.000e+00 	 0.00000e+00
2.250e+00 	 0.00000e+00
2.500e+00 	 0.00000e+00
2.750e+00 	 0.00000e+00
3.000e+00 	 0.00000e+00
3.250e+00 	 0.00000e+00
3.500e+00 	 0.00000e+00
3.750e+00 	 0.00000e+00
4.000e+00 	 0.00000e+00
4.250e+00 	 9.35099e-02
4.500e+00 	 9.45438e-02
4.750e+00 	 1.40859e-01
5.000e+00 	 2.20208e-01
5.250e+00 	 3.74322e-01
5.500e+00 	 6.63286e-01
5.750e+00 	 1.18249e+00
6.000e+00 	 1.87509e+00
6.250e+00 	 2.94785e+00
6.500e+00 	 4.15975e+00
6.750e+00 	 5.34318e+00
7.000e+00 	 6.37952e+00
7.250e+00 	 7.14066e+00
7.500e+00 	 8.87012e+00
7.750e+00 	 1.00331e+01
8.000e+00 	 1.46310e+01
8.250e+00 	 3.54952e+01
8.500e+00 	 2.47707e+01
8.750e+00 	 1.50085e+01
9.000e+00 	 1.70538e+01
9.250e+00 	 1.80077e+01
9.500e+00 	 2.59663e+01
9.750e+00 	 3.12959e+01
1.000e+01 	 2.54740e+01
1.025e+01 	 1.68576e+01
1.050e+01 	 1.62766e+01
1.075e+01 	 1.60642e+01
1.100e+01 	 1.53985e+01
1.125e+01 	 1.82613e+01
1.150e+01 	 1.48745e+01
1.175e+01 	 1.27164e+01
1.200e+01 	 1.10861e+01
1.225e+01 	 8.87697e+00
1.250e+01 	 6.93861e+00
1.275e+01 	 4.05265e+00
1.300e+01 	 9.07616e-01
1.325e+01 	 1.94573e-02
1.350e+01 	 5.20684e-02
1.375e+01 	 2.59083e-02
1.400e+01 	 3.71083e-02
1.425e+01 	 3.41947e-02
1.450e+01 	 3.43619e-02
1.475e+01 	 3.45394e-02
1.500e+01 	 3.15560e-02
1.525e+01 	 3.51608e-02
1.550e+01 	 3.15790e-02
1.575e+01 	 3.32008e-02
1.600e+01 	 3.30708e-02
1.625e+01 	 3.34849e-02
1.650e+01 	 3.16880e-02
